File: XRD/hydromagnesite.xy
'Id: "" Comment: "" Operator: "Lab Manager" Anode: "Cu" Scantype: "Coupled TwoTheta/Theta" TimePerStep: "192"
5.0000 6.823
5.2212 6.115
5.4424 5.948
5.6636 5.474
5.8848 5.359
6.1060 5.083
6.3271 5.036
6.5483 4.880
6.7695 4.469
6.9907 4.245
7.2119 3.698
7.4331 3.661
7.6543 3.719
7.8755 3.177
8.0967 3.188
8.3179 2.786
8.5391 3.042
8.7602 2.807
8.9814 2.719
9.2026 3.547
9.4238 8.526
9.6450 10.786
9.8662 2.745
10.0874 2.057
10.3086 1.813
10.5298 1.672
10.7510 1.594
10.9721 1.667
11.1933 1.552
11.4145 1.500
11.6357 1.266
11.8569 1.589
12.0781 1.281
12.2993 1.245
12.5205 1.188
12.7417 1.302
12.9629 1.198
13.1841 1.401
13.4052 1.750
13.6264 3.526
13.8476 5.453
14.0688 1.849
14.2900 1.469
14.5112 1.391
14.7324 1.510
14.9536 2.479
15.1748 12.568
15.3960 4.490
15.6172 1.469
15.8383 1.344
16.0595 1.000
16.2807 1.000
16.5019 0.958
16.7231 1.057
16.9443 0.870
17.1655 0.964
17.3867 0.818
17.6079 0.859
17.8291 0.776
18.0503 0.813
18.2714 0.901
18.4926 0.807
18.7138 0.870
18.9350 0.969
19.1562 1.281
19.3774 1.359
19.5986 1.125
19.8198 2.568
20.0410 0.990
20.2622 0.724
20.4834 0.802
20.7045 0.802
20.9257 1.240
21.1469 4.698
21.3681 1.193
21.5893 1.630
21.8105 1.646
22.0317 1.625
22.2529 1.042
22.4741 0.802
22.6953 0.682
22.9164 0.729
23.1376 1.120
23.3588 1.688
23.5800 0.698
23.8012 0.656
24.0224 0.734
24.2436 0.698
24.4648 0.625
24.6860 0.604
24.9072 0.667
25.1284 0.786
25.3495 1.880
25.5707 1.063
25.7919 0.708
26.0131 0.682
26.2343 1.094
26.4555 0.766
26.6767 1.688
26.8979 3.297
27.1191 1.344
27.3403 0.979
27.5615 1.266
27.7826 2.786
28.0038 1.651
28.2250 3.313
28.4462 1.969
28.6674 1.964
28.8886 2.245
29.1098 1.609
29.3310 1.177
29.5522 1.005
29.7734 0.844
29.9946 1.047
30.2157 1.099
30.4369 2.219
30.6581 6.833
30.8793 8.224
31.1005 1.854
31.3217 1.411
31.5429 1.276
31.7641 0.849
31.9853 0.828
32.2065 1.172
32.4277 1.177
32.6488 2.224
32.8700 1.099
33.0912 2.328
33.3124 3.542
33.5336 1.172
33.7548 0.844
33.9760 0.984
34.1972 0.651
34.4184 0.635
34.6396 0.651
34.8607 0.839
35.0819 1.219
35.3031 1.313
35.5243 1.536
35.7455 2.500
35.9667 2.354
36.1879 2.240
36.4091 1.849
36.6303 0.979
36.8515 0.922
37.0727 0.917
37.2938 1.234
37.5150 0.635
37.7362 0.938
37.9574 0.792
38.1786 1.266
38.3998 1.401
38.6210 0.875
38.8422 1.401
39.0634 3.250
39.2846 2.667
39.5058 1.036
39.7269 0.771
39.9481 0.625
40.1693 0.891
40.3905 1.000
40.6117 1.297
40.8329 3.109
41.0541 1.833
41.2753 2.302
41.4965 2.135
41.7177 3.563
41.9389 4.016
42.1600 2.807
42.3812 1.505
42.6024 0.854
42.8236 0.875
43.0448 0.932
43.2660 0.615
43.4872 0.479
43.7084 0.448
43.9296 0.557
44.1508 0.599
44.3720 0.922
44.5931 1.026
44.8143 1.078
45.0355 1.068
45.2567 1.417
45.4779 3.240
45.6991 1.708
45.9203 1.510
46.1415 1.214
46.3627 0.901
46.5839 0.677
46.8050 1.297
47.0262 1.469
47.2474 0.979
47.4686 0.911
47.6898 0.906
47.9110 0.885
48.1322 0.625
48.3534 0.740
48.5746 0.755
48.7958 0.964
49.0170 1.292
49.2381 0.948
49.4593 1.214
49.6805 1.214
49.9017 1.073
50.1229 1.526
50.3441 1.016
50.5653 0.604
50.7865 0.542
51.0077 0.396
51.2289 0.469
51.4501 0.490
51.6712 0.557
51.8924 0.979
52.1136 0.953
52.3348 0.938
52.5560 1.385
52.7772 0.984
52.9984 0.724
53.2196 0.370
53.4408 0.370
53.6620 0.443
53.8832 0.557
54.1043 0.432
54.3255 0.578
54.5467 0.641
54.7679 0.792
54.9891 0.781
55.2103 0.818
55.4315 0.724
55.6527 0.682
55.8739 0.813
56.0951 0.922
56.3163 0.964
56.5374 1.542
56.7586 2.729
56.9798 2.245
57.2010 1.406
57.4222 0.839
57.6434 0.531
57.8646 0.563
58.0858 0.604
58.3070 1.005
58.5282 1.422
58.7493 1.151
58.9705 1.635
59.1917 1.182
59.4129 0.672
59.6341 0.615
59.8553 0.557
60.0765 0.797
60.2977 0.745
60.5189 0.964
60.7401 0.703
60.9613 0.609
61.1824 0.427
61.4036 0.599
61.6248 0.771
61.8460 0.839
62.0672 0.568
62.2884 0.578
62.5096 0.552
62.7308 0.505
62.9520 0.531
63.1732 0.656
63.3944 0.714
63.6155 0.802
63.8367 0.755
64.0579 0.854
64.2791 0.885
64.5003 0.958
64.7215 0.708
64.9427 0.604
65.1639 0.458
65.3851 0.688
65.6063 0.948
65.8275 0.911
66.0486 0.729
66.2698 0.776
66.4910 0.740
66.7122 0.760
66.9334 0.885
67.1546 0.755
67.3758 0.573
67.5970 0.453
67.8182 0.510
68.0394 0.563
68.2606 0.495
68.4817 0.563
68.7029 0.510
68.9241 0.547
69.1453 0.438
69.3665 0.406
69.5877 0.370
69.8089 0.432
70.0108 0.510