File: XRD/magnesium_oxide.xy
'Id: "" Comment: "" Operator: "Lab Manager" Anode: "Cu" Scantype: "Coupled TwoTheta/Theta" TimePerStep: "192"
5.0000 7.891
5.2212 6.974
5.4424 6.026
5.6636 5.969
5.8848 5.839
6.1060 5.313
6.3271 5.328
6.5483 4.776
6.7695 4.510
6.9907 4.474
7.2119 3.927
7.4331 3.948
7.6543 3.630
7.8755 3.526
8.0967 3.146
8.3179 2.865
8.5391 2.594
8.7602 2.984
8.9814 2.438
9.2026 2.188
9.4238 2.943
9.6450 2.021
9.8662 1.677
10.0874 1.771
10.3086 1.620
10.5298 1.578
10.7510 1.443
10.9721 1.563
11.1933 1.516
11.4145 1.526
11.6357 1.411
11.8569 1.297
12.0781 1.328
12.2993 1.375
12.5205 1.344
12.7417 1.130
12.9629 1.125
13.1841 1.099
13.4052 1.219
13.6264 1.141
13.8476 1.203
14.0688 1.109
14.2900 1.078
14.5112 0.979
14.7324 0.906
14.9536 1.026
15.1748 0.932
15.3960 0.865
15.6172 0.917
15.8383 0.865
16.0595 0.880
16.2807 0.807
16.5019 0.833
16.7231 0.734
16.9443 0.849
17.1655 0.875
17.3867 0.797
17.6079 0.792
17.8291 0.828
18.0503 0.609
18.2714 0.813
18.4926 0.917
18.7138 0.630
18.9350 0.766
19.1562 0.589
19.3774 0.698
19.5986 0.693
19.8198 0.583
20.0410 0.630
20.2622 0.703
20.4834 0.536
20.7045 0.646
20.9257 0.615
21.1469 0.615
21.3681 0.646
21.5893 0.656
21.8105 0.495
22.0317 0.589
22.2529 0.646
22.4741 0.583
22.6953 0.578
22.9164 0.516
23.1376 0.568
23.3588 0.589
23.5800 0.563
23.8012 0.589
24.0224 0.531
24.2436 0.500
24.4648 0.500
24.6860 0.490
24.9072 0.531
25.1284 0.464
25.3495 0.526
25.5707 0.521
25.7919 0.505
26.0131 0.375
26.2343 0.536
26.4555 0.516
26.6767 0.667
26.8979 0.401
27.1191 0.510
27.3403 0.448
27.5615 0.438
27.7826 0.443
28.0038 0.547
28.2250 0.542
28.4462 0.469
28.6674 0.823
28.8886 0.469
29.1098 0.490
29.3310 1.089
29.5522 0.776
29.7734 0.490
29.9946 0.510
30.2157 0.432
30.4369 0.448
30.6581 0.359
30.8793 0.469
31.1005 0.557
31.3217 0.422
31.5429 0.427
31.7641 0.411
31.9853 0.484
32.2065 0.766
32.4277 0.443
32.6488 0.396
32.8700 0.380
33.0912 0.484
33.3124 0.458
33.5336 0.422
33.7548 0.422
33.9760 0.380
34.1972 0.385
34.4184 0.432
34.6396 0.479
34.8607 0.490
35.0819 0.526
35.3031 0.443
35.5243 0.422
35.7455 0.536
35.9667 0.740
36.1879 0.714
36.4091 0.828
36.6303 1.094
36.8515 1.635
37.0727 1.599
37.2938 1.411
37.5150 0.964
37.7362 0.542
37.9574 0.385
38.1786 0.401
38.3998 0.396
38.6210 0.391
38.8422 0.365
39.0634 0.417
39.2846 0.536
39.5058 0.583
39.7269 0.495
39.9481 0.396
40.1693 0.370
40.3905 0.469
40.6117 0.411
40.8329 0.479
41.0541 0.609
41.2753 0.672
41.4965 0.750
41.7177 1.135
41.9389 1.234
42.1600 1.984
42.3812 4.385
42.6024 9.547
42.8236 16.318
43.0448 13.620
43.2660 6.333
43.4872 2.839
43.7084 1.495
43.9296 1.005
44.1508 0.776
44.3720 0.708
44.5931 0.583
44.8143 0.557
45.0355 0.458
45.2567 0.458
45.4779 0.464
45.6991 0.453
45.9203 0.417
46.1415 0.391
46.3627 0.370
46.5839 0.365
46.8050 0.380
47.0262 0.375
47.2474 0.427
47.4686 0.484
47.6898 0.406
47.9110 0.297
48.1322 0.302
48.3534 0.438
48.5746 0.427
48.7958 0.307
49.0170 0.302
49.2381 0.234
49.4593 0.339
49.6805 0.339
49.9017 0.339
50.1229 0.286
50.3441 0.266
50.5653 0.255
50.7865 0.271
51.0077 0.313
51.2289 0.224
51.4501 0.260
51.6712 0.281
51.8924 0.234
52.1136 0.224
52.3348 0.318
52.5560 0.234
52.7772 0.229
52.9984 0.245
53.2196 0.297
53.4408 0.281
53.6620 0.396
53.8832 0.469
54.1043 0.385
54.3255 0.240
54.5467 0.271
54.7679 0.260
54.9891 0.245
55.2103 0.250
55.4315 0.245
55.6527 0.271
55.8739 0.260
56.0951 0.266
56.3163 0.229
56.5374 0.302
56.7586 0.271
56.9798 0.208
57.2010 0.302
57.4222 0.318
57.6434 0.177
57.8646 0.229
58.0858 0.250
58.3070 0.245
58.5282 0.307
58.7493 0.271
58.9705 0.266
59.1917 0.307
59.4129 0.240
59.6341 0.260
59.8553 0.406
60.0765 0.401
60.2977 0.349
60.5189 0.438
60.7401 0.526
60.9613 0.583
61.1824 0.688
61.4036 0.995
61.6248 1.583
61.8460 3.510
62.0672 6.484
62.2884 8.047
62.5096 5.589
62.7308 2.661
62.9520 1.432
63.1732 0.740
63.3944 0.635
63.6155 0.568
63.8367 0.422
64.0579 0.458
64.2791 0.427
64.5003 0.354
64.7215 0.344
64.9427 0.245
65.1639 0.245
65.3851 0.354
65.6063 0.328
65.8275 0.323
66.0486 0.328
66.2698 0.271
66.4910 0.328
66.7122 0.234
66.9334 0.224
67.1546 0.297
67.3758 0.339
67.5970 0.260
67.8182 0.302
68.0394 0.255
68.2606 0.307
68.4817 0.219
68.7029 0.229
68.9241 0.214
69.1453 0.203
69.3665 0.240
69.5877 0.224
69.8089 0.286
70.0108 0.208