File: XRD/silica_fume.xy
'Id: "" Comment: "" Operator: "Lab Manager" Anode: "Cu" Scantype: "Coupled TwoTheta/Theta" TimePerStep: "192"
5.0000 6.615
5.2212 6.026
5.4424 5.922
5.6636 5.719
5.8848 5.214
6.1060 4.828
6.3271 4.948
6.5483 4.380
6.7695 4.453
6.9907 4.036
7.2119 4.073
7.4331 3.813
7.6543 3.385
7.8755 3.568
8.0967 3.240
8.3179 2.927
8.5391 2.984
8.7602 2.750
8.9814 2.448
9.2026 2.318
9.4238 2.208
9.6450 2.302
9.8662 2.010
10.0874 1.734
10.3086 1.792
10.5298 1.911
10.7510 2.073
10.9721 1.938
11.1933 1.672
11.4145 1.745
11.6357 1.724
11.8569 1.708
12.0781 1.880
12.2993 1.771
12.5205 1.828
12.7417 1.734
12.9629 1.672
13.1841 1.693
13.4052 1.688
13.6264 1.552
13.8476 1.682
14.0688 1.708
14.2900 1.792
14.5112 1.536
14.7324 1.734
14.9536 1.630
15.1748 1.849
15.3960 1.786
15.6172 1.729
15.8383 1.766
16.0595 1.896
16.2807 1.708
16.5019 1.786
16.7231 1.875
16.9443 2.099
17.1655 1.839
17.3867 2.234
17.6079 1.979
17.8291 2.240
18.0503 2.286
18.2714 2.177
18.4926 2.286
18.7138 2.417
18.9350 2.271
19.1562 2.604
19.3774 2.604
19.5986 2.635
19.8198 2.542
20.0410 2.818
20.2622 2.714
20.4834 2.953
20.7045 2.813
20.9257 2.906
21.1469 3.026
21.3681 2.979
21.5893 3.026
21.8105 3.000
22.0317 3.120
22.2529 2.698
22.4741 2.859
22.6953 2.703
22.9164 2.646
23.1376 2.734
23.3588 2.339
23.5800 2.536
23.8012 2.250
24.0224 2.500
24.2436 2.224
24.4648 2.083
24.6860 2.130
24.9072 2.125
25.1284 1.865
25.3495 2.021
25.5707 1.792
25.7919 1.641
26.0131 1.854
26.2343 1.734
26.4555 1.677
26.6767 1.677
26.8979 1.630
27.1191 1.500
27.3403 1.380
27.5615 1.380
27.7826 1.271
28.0038 1.479
28.2250 1.458
28.4462 1.432
28.6674 1.224
28.8886 1.229
29.1098 1.167
29.3310 1.276
29.5522 1.245
29.7734 1.198
29.9946 1.141
30.2157 1.109
30.4369 1.156
30.6581 1.120
30.8793 1.151
31.1005 1.057
31.3217 1.000
31.5429 0.906
31.7641 0.990
31.9853 1.000
32.2065 1.104
32.4277 1.036
32.6488 0.901
32.8700 0.927
33.0912 0.823
33.3124 0.927
33.5336 0.932
33.7548 0.974
33.9760 0.859
34.1972 0.906
34.4184 0.792
34.6396 0.729
34.8607 0.849
35.0819 0.839
35.3031 0.828
35.5243 0.766
35.7455 1.401
35.9667 0.839
36.1879 0.594
36.4091 0.766
36.6303 0.776
36.8515 0.703
37.0727 0.719
37.2938 0.677
37.5150 0.589
37.7362 0.714
37.9574 0.677
38.1786 0.589
38.3998 0.615
38.6210 0.552
38.8422 0.578
39.0634 0.615
39.2846 0.698
39.5058 0.464
39.7269 0.646
39.9481 0.589
40.1693 0.516
40.3905 0.625
40.6117 0.563
40.8329 0.531
41.0541 0.698
41.2753 0.667
41.4965 0.646
41.7177 0.620
41.9389 0.667
42.1600 0.542
42.3812 0.599
42.6024 0.521
42.8236 0.563
43.0448 0.490
43.2660 0.568
43.4872 0.526
43.7084 0.563
43.9296 0.625
44.1508 0.552
44.3720 0.521
44.5931 0.578
44.8143 0.563
45.0355 0.589
45.2567 0.578
45.4779 0.547
45.6991 0.547
45.9203 0.542
46.1415 0.589
46.3627 0.604
46.5839 0.526
46.8050 0.563
47.0262 0.500
47.2474 0.563
47.4686 0.557
47.6898 0.542
47.9110 0.432
48.1322 0.438
48.3534 0.557
48.5746 0.495
48.7958 0.495
49.0170 0.490
49.2381 0.542
49.4593 0.469
49.6805 0.458
49.9017 0.563
50.1229 0.599
50.3441 0.438
50.5653 0.484
50.7865 0.583
51.0077 0.479
51.2289 0.526
51.4501 0.490
51.6712 0.344
51.8924 0.490
52.1136 0.427
52.3348 0.464
52.5560 0.484
52.7772 0.589
52.9984 0.599
53.2196 0.552
53.4408 0.359
53.6620 0.427
53.8832 0.474
54.1043 0.526
54.3255 0.490
54.5467 0.490
54.7679 0.490
54.9891 0.495
55.2103 0.484
55.4315 0.500
55.6527 0.385
55.8739 0.438
56.0951 0.490
56.3163 0.469
56.5374 0.354
56.7586 0.510
56.9798 0.396
57.2010 0.406
57.4222 0.427
57.6434 0.469
57.8646 0.490
58.0858 0.521
58.3070 0.563
58.5282 0.406
58.7493 0.505
58.9705 0.432
59.1917 0.443
59.4129 0.464
59.6341 0.526
59.8553 0.646
60.0765 0.698
60.2977 0.526
60.5189 0.458
60.7401 0.526
60.9613 0.521
61.1824 0.406
61.4036 0.500
61.6248 0.422
61.8460 0.411
62.0672 0.510
62.2884 0.547
62.5096 0.432
62.7308 0.495
62.9520 0.474
63.1732 0.453
63.3944 0.479
63.6155 0.521
63.8367 0.526
64.0579 0.635
64.2791 0.484
64.5003 0.438
64.7215 0.495
64.9427 0.557
65.1639 0.422
65.3851 0.469
65.6063 0.443
65.8275 0.526
66.0486 0.474
66.2698 0.339
66.4910 0.427
66.7122 0.406
66.9334 0.422
67.1546 0.448
67.3758 0.422
67.5970 0.464
67.8182 0.448
68.0394 0.474
68.2606 0.464
68.4817 0.422
68.7029 0.422
68.9241 0.448
69.1453 0.401
69.3665 0.479
69.5877 0.396
69.8089 0.510
70.0108 0.448